Time (s),Current (A)
0,0.121
1,0.321
3,0.417
5,0.272
7,0.303
9,0.812
11,1.862
13,1.82
15,1.249
17,0.694
19,1.651
21,2.385
23,0.377
25,0.757
27,3.203
29,3.304
31,0.318
33,2.381
35,0.878
37,0.193
39,2.257
41,0.706
43,1.428
45,0.894
47,2.073
49,1.743
51,1.522
53,2.352
